#  E (eV)   dosup(E)     dosdw(E)   Int dos(E) EFermi =  13.823 eV
   4.804  0.0000E+00  0.0000E+00  0.0000E+00
   4.904  0.1442E-01  0.1442E-01  0.2884E-02
   5.004  0.2671E-01  0.2671E-01  0.8226E-02
   5.104  0.3304E-01  0.3304E-01  0.1483E-01
   5.204  0.4085E-01  0.4085E-01  0.2300E-01
   5.304  0.4588E-01  0.4588E-01  0.3218E-01
   5.404  0.5090E-01  0.5090E-01  0.4236E-01
   5.504  0.5648E-01  0.5648E-01  0.5366E-01
   5.604  0.6092E-01  0.6092E-01  0.6584E-01
   5.704  0.6491E-01  0.6491E-01  0.7882E-01
   5.804  0.6954E-01  0.6954E-01  0.9273E-01
   5.904  0.7452E-01  0.7452E-01  0.1076E+00
   6.004  0.7873E-01  0.7873E-01  0.1234E+00
   6.104  0.8321E-01  0.8321E-01  0.1400E+00
   6.204  0.8685E-01  0.8685E-01  0.1574E+00
   6.304  0.9102E-01  0.9102E-01  0.1756E+00
   6.404  0.9529E-01  0.9529E-01  0.1947E+00
   6.504  0.9961E-01  0.9961E-01  0.2146E+00
   6.604  0.1046E+00  0.1046E+00  0.2355E+00
   6.704  0.1211E+00  0.1211E+00  0.2597E+00
   6.804  0.1222E+00  0.1222E+00  0.2841E+00
   6.904  0.1257E+00  0.1257E+00  0.3093E+00
   7.004  0.1263E+00  0.1263E+00  0.3345E+00
   7.104  0.1286E+00  0.1286E+00  0.3603E+00
   7.204  0.1317E+00  0.1317E+00  0.3866E+00
   7.304  0.1340E+00  0.1340E+00  0.4134E+00
   7.404  0.1368E+00  0.1368E+00  0.4408E+00
   7.504  0.1399E+00  0.1399E+00  0.4687E+00
   7.604  0.1678E+00  0.1678E+00  0.5023E+00
   7.704  0.1673E+00  0.1673E+00  0.5358E+00
   7.804  0.1771E+00  0.1771E+00  0.5712E+00
   7.904  0.1851E+00  0.1851E+00  0.6082E+00
   8.004  0.1955E+00  0.1955E+00  0.6473E+00
   8.104  0.2067E+00  0.2067E+00  0.6887E+00
   8.204  0.2174E+00  0.2174E+00  0.7321E+00
   8.304  0.2331E+00  0.2331E+00  0.7788E+00
   8.404  0.2524E+00  0.2524E+00  0.8292E+00
   8.504  0.2744E+00  0.2745E+00  0.8841E+00
   8.604  0.3003E+00  0.3004E+00  0.9442E+00
   8.704  0.3307E+00  0.3308E+00  0.1010E+01
   8.804  0.3759E+00  0.3760E+00  0.1086E+01
   8.904  0.4415E+00  0.4417E+00  0.1174E+01
   9.004  0.5326E+00  0.5329E+00  0.1280E+01
   9.104  0.9515E+00  0.9527E+00  0.1471E+01
   9.204  0.9309E+00  0.9304E+00  0.1657E+01
   9.304  0.8689E+00  0.8686E+00  0.1831E+01
   9.404  0.9452E+00  0.9454E+00  0.2020E+01
   9.504  0.9784E+00  0.9788E+00  0.2215E+01
   9.604  0.1104E+01  0.1105E+01  0.2436E+01
   9.704  0.1295E+01  0.1295E+01  0.2695E+01
   9.804  0.1393E+01  0.1394E+01  0.2974E+01
   9.904  0.1570E+01  0.1572E+01  0.3288E+01
  10.004  0.1724E+01  0.1727E+01  0.3633E+01
  10.104  0.1427E+01  0.1425E+01  0.3919E+01
  10.204  0.1240E+01  0.1240E+01  0.4167E+01
  10.304  0.1373E+01  0.1374E+01  0.4441E+01
  10.404  0.1491E+01  0.1491E+01  0.4739E+01
  10.504  0.1804E+01  0.1807E+01  0.5101E+01
  10.604  0.2124E+01  0.2135E+01  0.5526E+01
  10.704  0.1662E+01  0.1656E+01  0.5858E+01
  10.804  0.1070E+01  0.1070E+01  0.6072E+01
  10.904  0.1496E+01  0.1496E+01  0.6371E+01
  11.004  0.2085E+01  0.2087E+01  0.6789E+01
  11.104  0.2641E+01  0.2643E+01  0.7317E+01
  11.204  0.2043E+01  0.2045E+01  0.7726E+01
  11.304  0.1188E+01  0.1188E+01  0.7963E+01
  11.404  0.1606E+01  0.1604E+01  0.8284E+01
  11.504  0.1666E+01  0.1664E+01  0.8617E+01
  11.604  0.1794E+01  0.1795E+01  0.8976E+01
  11.704  0.1920E+01  0.1920E+01  0.9360E+01
  11.804  0.2011E+01  0.2009E+01  0.9762E+01
  11.904  0.1821E+01  0.1823E+01  0.1013E+02
  12.004  0.2192E+01  0.2193E+01  0.1057E+02
  12.104  0.3431E+01  0.3403E+01  0.1125E+02
  12.204  0.2160E+01  0.2168E+01  0.1168E+02
  12.304  0.2604E+01  0.2571E+01  0.1220E+02
  12.404  0.3475E+01  0.3473E+01  0.1289E+02
  12.504  0.2141E+01  0.2144E+01  0.1332E+02
  12.604  0.1760E+01  0.1759E+01  0.1367E+02
  12.704  0.1869E+01  0.1873E+01  0.1405E+02
  12.804  0.1262E+01  0.1263E+01  0.1430E+02
  12.904  0.1285E+01  0.1291E+01  0.1456E+02
  13.004  0.1724E+01  0.1725E+01  0.1490E+02
  13.104  0.1615E+01  0.1615E+01  0.1523E+02
  13.204  0.1711E+01  0.1709E+01  0.1557E+02
  13.304  0.1933E+01  0.1930E+01  0.1595E+02
  13.404  0.1640E+01  0.1639E+01  0.1628E+02
  13.504  0.1779E+01  0.1777E+01  0.1664E+02
  13.604  0.1898E+01  0.1894E+01  0.1702E+02
  13.704  0.2353E+01  0.2346E+01  0.1749E+02
  13.804  0.2532E+01  0.2535E+01  0.1799E+02
  13.904  0.2241E+01  0.2229E+01  0.1844E+02
  14.004  0.3168E+01  0.3185E+01  0.1908E+02
  14.104  0.4095E+01  0.4092E+01  0.1989E+02
  14.204  0.2198E+01  0.2217E+01  0.2034E+02
  14.304  0.8754E+00  0.8757E+00  0.2051E+02
  14.404  0.7888E+00  0.7888E+00  0.2067E+02
  14.504  0.7015E+00  0.7027E+00  0.2081E+02
  14.604  0.6448E+00  0.6449E+00  0.2094E+02
  14.704  0.5342E+00  0.5378E+00  0.2105E+02
  14.804  0.4747E+00  0.4754E+00  0.2114E+02
  14.904  0.4554E+00  0.4559E+00  0.2123E+02
  15.004  0.4337E+00  0.4343E+00  0.2132E+02
  15.104  0.4184E+00  0.4188E+00  0.2140E+02
  15.204  0.4104E+00  0.4107E+00  0.2148E+02
  15.304  0.3867E+00  0.3869E+00  0.2156E+02
  15.404  0.3764E+00  0.3766E+00  0.2164E+02
  15.504  0.3791E+00  0.3792E+00  0.2171E+02
  15.604  0.3414E+00  0.3417E+00  0.2178E+02
  15.704  0.3244E+00  0.3246E+00  0.2185E+02
  15.804  0.3161E+00  0.3163E+00  0.2191E+02
  15.904  0.3108E+00  0.3109E+00  0.2197E+02
  16.004  0.3021E+00  0.3022E+00  0.2203E+02
  16.104  0.2970E+00  0.2971E+00  0.2209E+02
  16.204  0.2872E+00  0.2872E+00  0.2215E+02
  16.304  0.2852E+00  0.2852E+00  0.2221E+02
  16.404  0.2752E+00  0.2753E+00  0.2226E+02
  16.504  0.2669E+00  0.2669E+00  0.2231E+02
  16.604  0.2595E+00  0.2596E+00  0.2237E+02
  16.704  0.2539E+00  0.2540E+00  0.2242E+02
  16.804  0.2510E+00  0.2510E+00  0.2247E+02
  16.904  0.2470E+00  0.2471E+00  0.2252E+02
  17.004  0.2424E+00  0.2425E+00  0.2256E+02
  17.104  0.2391E+00  0.2392E+00  0.2261E+02
  17.204  0.2365E+00  0.2366E+00  0.2266E+02
  17.304  0.2377E+00  0.2377E+00  0.2271E+02
  17.404  0.2409E+00  0.2409E+00  0.2276E+02
  17.504  0.2446E+00  0.2446E+00  0.2280E+02
  17.604  0.2498E+00  0.2498E+00  0.2285E+02
  17.704  0.2519E+00  0.2519E+00  0.2290E+02
  17.804  0.2680E+00  0.2681E+00  0.2296E+02
  17.904  0.2399E+00  0.2400E+00  0.2301E+02
  18.004  0.2358E+00  0.2358E+00  0.2305E+02
  18.104  0.2317E+00  0.2317E+00  0.2310E+02
  18.204  0.2298E+00  0.2298E+00  0.2315E+02
  18.304  0.2291E+00  0.2291E+00  0.2319E+02
  18.404  0.2232E+00  0.2235E+00  0.2324E+02
  18.504  0.2009E+00  0.2009E+00  0.2328E+02
  18.604  0.1926E+00  0.1926E+00  0.2332E+02
  18.704  0.1866E+00  0.1866E+00  0.2335E+02
  18.804  0.1819E+00  0.1819E+00  0.2339E+02
  18.904  0.1778E+00  0.1778E+00  0.2342E+02
  19.004  0.1746E+00  0.1746E+00  0.2346E+02
  19.104  0.1731E+00  0.1731E+00  0.2349E+02
  19.204  0.1706E+00  0.1706E+00  0.2353E+02
  19.304  0.2783E+00  0.2796E+00  0.2358E+02
